# From: http://henke.lbl.gov/optical_constants/gastrn2.html
# N1.562O.42C.0003Ar.0094 Pressure=760. Path=1. cm
# Photon energy (eV), Transmission
    3000.0      0.82370
    3027.0      0.82789
    3054.1      0.83196
    3081.1      0.83591
    3108.1      0.83975
    3135.1      0.84347
    3162.2      0.84709
    3189.2      0.85060
    3216.2      0.83774
    3243.2      0.84132
    3270.3      0.84481
    3297.3      0.84820
    3324.3      0.85149
    3351.4      0.85470
    3378.4      0.85782
    3405.4      0.86086
    3432.4      0.86381
    3459.5      0.86669
    3486.5      0.86949
    3513.5      0.87222
    3540.5      0.87488
    3567.6      0.87747
    3594.6      0.87999
    3621.6      0.88245
    3648.6      0.88485
    3675.7      0.88718
    3702.7      0.88946
    3729.7      0.89167
    3756.8      0.89383
    3783.8      0.89594
    3810.8      0.89800
    3837.8      0.90000
    3864.9      0.90195
    3891.9      0.90386
    3918.9      0.90572
    3945.9      0.90753
    3973.0      0.90930
    4000.0      0.91104
    4027.0      0.91272
    4054.1      0.91437
    4081.1      0.91598
    4108.1      0.91754
    4135.1      0.91908
    4162.2      0.92057
    4189.2      0.92203
    4216.2      0.92345
    4243.2      0.92484
    4270.3      0.92620
    4297.3      0.92753
    4324.3      0.92882
    4351.4      0.93009
    4378.4      0.93133
    4405.4      0.93254
    4432.4      0.93372
    4459.5      0.93488
    4486.5      0.93601
    4513.5      0.93711
    4540.5      0.93819
    4567.6      0.93925
    4594.6      0.94028
    4621.6      0.94129
    4648.6      0.94228
    4675.7      0.94324
    4702.7      0.94419
    4729.7      0.94512
    4756.8      0.94602
    4783.8      0.94691
    4810.8      0.94778
    4837.8      0.94863
    4864.9      0.94946
    4891.9      0.95027
    4918.9      0.95107
    4945.9      0.95185
    4973.0      0.95261
    5000.0      0.95336
    5027.0      0.95410
    5054.1      0.95482
    5081.1      0.95552
    5108.1      0.95621
    5135.1      0.95689
    5162.2      0.95755
    5189.2      0.95820
    5216.2      0.95883
    5243.2      0.95946
    5270.3      0.96007
    5297.3      0.96067
    5324.3      0.96126
    5351.4      0.96184
    5378.4      0.96240
    5405.4      0.96296
    5432.4      0.96350
    5459.5      0.96403
    5486.5      0.96456
    5513.5      0.96507
    5540.5      0.96558
    5567.6      0.96607
    5594.6      0.96656
    5621.6      0.96703
    5648.6      0.96750
    5675.7      0.96796
    5702.7      0.96841
    5729.7      0.96885
    5756.8      0.96929
    5783.8      0.96971
    5810.8      0.97013
    5837.8      0.97054
    5864.9      0.97095
    5891.9      0.97134
    5918.9      0.97173
    5945.9      0.97212
    5973.0      0.97249
    6000.0      0.97286
    6027.0      0.97322
    6054.1      0.97358
    6081.1      0.97393
    6108.1      0.97428
    6135.1      0.97461
    6162.2      0.97495
    6189.2      0.97527
    6216.2      0.97560
    6243.2      0.97591
    6270.3      0.97622
    6297.3      0.97653
    6324.3      0.97683
    6351.4      0.97712
    6378.4      0.97741
    6405.4      0.97770
    6432.4      0.97798
    6459.5      0.97826
    6486.5      0.97853
    6513.5      0.97879
    6540.5      0.97906
    6567.6      0.97932
    6594.6      0.97957
    6621.6      0.97982
    6648.6      0.98007
    6675.7      0.98031
    6702.7      0.98055
    6729.7      0.98078
    6756.8      0.98102
    6783.8      0.98124
    6810.8      0.98147
    6837.8      0.98169
    6864.9      0.98190
    6891.9      0.98212
    6918.9      0.98233
    6945.9      0.98254
    6973.0      0.98274
    7000.0      0.98294
    7027.0      0.98314
    7054.1      0.98333
    7081.1      0.98352
    7108.1      0.98371
    7135.1      0.98390
    7162.2      0.98408
    7189.2      0.98426
    7216.2      0.98444
    7243.2      0.98462
    7270.3      0.98479
    7297.3      0.98496
    7324.3      0.98513
    7351.4      0.98529
    7378.4      0.98546
    7405.4      0.98562
    7432.4      0.98577
    7459.5      0.98593
    7486.5      0.98608
    7513.5      0.98623
    7540.5      0.98638
    7567.6      0.98653
    7594.6      0.98668
    7621.6      0.98682
    7648.6      0.98696
    7675.7      0.98710
    7702.7      0.98724
    7729.7      0.98737
    7756.8      0.98750
    7783.8      0.98764
    7810.8      0.98776
    7837.8      0.98789
    7864.9      0.98802
    7891.9      0.98814
    7918.9      0.98827
    7945.9      0.98839
    7973.0      0.98851
    8000.0      0.98862
    8027.0      0.98874
    8054.1      0.98885
    8081.1      0.98897
    8108.1      0.98908
    8135.1      0.98919
    8162.2      0.98930
    8189.2      0.98940
    8216.2      0.98951
    8243.2      0.98961
    8270.3      0.98972
    8297.3      0.98982
    8324.3      0.98992
    8351.4      0.99002
    8378.4      0.99012
    8405.4      0.99021
    8432.4      0.99031
    8459.5      0.99040
    8486.5      0.99049
    8513.5      0.99059
    8540.5      0.99068
    8567.6      0.99077
    8594.6      0.99085
    8621.6      0.99094
    8648.6      0.99103
    8675.7      0.99111
    8702.7      0.99120
    8729.7      0.99128
    8756.8      0.99136
    8783.8      0.99144
    8810.8      0.99152
    8837.8      0.99160
    8864.9      0.99168
    8891.9      0.99175
    8918.9      0.99183
    8945.9      0.99190
    8973.0      0.99198
    9000.0      0.99205
    9027.0      0.99212
    9054.1      0.99220
    9081.1      0.99227
    9108.1      0.99234
    9135.1      0.99240
    9162.2      0.99247
    9189.2      0.99254
    9216.2      0.99261
    9243.2      0.99267
    9270.3      0.99274
    9297.3      0.99280
    9324.3      0.99286
    9351.4      0.99293
    9378.4      0.99299
    9405.4      0.99305
    9432.4      0.99311
    9459.5      0.99317
    9486.5      0.99323
    9513.5      0.99329
    9540.5      0.99335
    9567.6      0.99340
    9594.6      0.99346
    9621.6      0.99351
    9648.6      0.99357
    9675.7      0.99362
    9702.7      0.99368
    9729.7      0.99373
    9756.8      0.99378
    9783.8      0.99384
    9810.8      0.99389
    9837.8      0.99394
    9864.9      0.99399
    9891.9      0.99404
    9918.9      0.99409
    9945.9      0.99414
    9973.0      0.99418
    10000.      0.99423
    10027.      0.99428
    10054.      0.99433
    10081.      0.99437
    10108.      0.99442
    10135.      0.99446
    10162.      0.99451
    10189.      0.99455
    10216.      0.99460
    10243.      0.99464
    10270.      0.99468
    10297.      0.99472
    10324.      0.99477
    10351.      0.99481
    10378.      0.99485
    10405.      0.99489
    10432.      0.99493
    10459.      0.99497
    10486.      0.99501
    10514.      0.99505
    10541.      0.99508
    10568.      0.99512
    10595.      0.99516
    10622.      0.99520
    10649.      0.99523
    10676.      0.99527
    10703.      0.99531
    10730.      0.99534
    10757.      0.99538
    10784.      0.99541
    10811.      0.99545
    10838.      0.99548
    10865.      0.99552
    10892.      0.99555
    10919.      0.99558
    10946.      0.99562
    10973.      0.99565
    11000.      0.99568
    11027.      0.99571
    11054.      0.99574
    11081.      0.99578
    11108.      0.99581
    11135.      0.99584
    11162.      0.99587
    11189.      0.99590
    11216.      0.99593
    11243.      0.99596
    11270.      0.99599
    11297.      0.99602
    11324.      0.99604
    11351.      0.99607
    11378.      0.99610
    11405.      0.99613
    11432.      0.99616
    11459.      0.99618
    11486.      0.99621
    11514.      0.99624
    11541.      0.99626
    11568.      0.99629
    11595.      0.99632
    11622.      0.99634
    11649.      0.99637
    11676.      0.99639
    11703.      0.99642
    11730.      0.99644
    11757.      0.99647
    11784.      0.99649
    11811.      0.99651
    11838.      0.99654
    11865.      0.99656
    11892.      0.99659
    11919.      0.99661
    11946.      0.99663
    11973.      0.99665
    12000.      0.99668
    12027.      0.99670
    12054.      0.99672
    12081.      0.99674
    12108.      0.99676
    12135.      0.99679
    12162.      0.99681
    12189.      0.99683
    12216.      0.99685
    12243.      0.99687
    12270.      0.99689
    12297.      0.99691
    12324.      0.99693
    12351.      0.99695
    12378.      0.99697
    12405.      0.99699
    12432.      0.99701
    12459.      0.99703
    12486.      0.99705
    12514.      0.99707
    12541.      0.99709
    12568.      0.99711
    12595.      0.99712
    12622.      0.99714
    12649.      0.99716
    12676.      0.99718
    12703.      0.99720
    12730.      0.99721
    12757.      0.99723
    12784.      0.99725
    12811.      0.99727
    12838.      0.99728
    12865.      0.99730
    12892.      0.99732
    12919.      0.99733
    12946.      0.99735
    12973.      0.99737
    13000.      0.99738
    13027.      0.99740
    13054.      0.99741
    13081.      0.99743
    13108.      0.99744
    13135.      0.99746
    13162.      0.99748
    13189.      0.99749
    13216.      0.99751
    13243.      0.99752
    13270.      0.99754
    13297.      0.99755
    13324.      0.99757
    13351.      0.99758
    13378.      0.99759
    13405.      0.99761
    13432.      0.99762
    13459.      0.99764
    13486.      0.99765
    13514.      0.99766
    13541.      0.99768
    13568.      0.99769
    13595.      0.99770
    13622.      0.99772
    13649.      0.99773
    13676.      0.99774
    13703.      0.99776
    13730.      0.99777
    13757.      0.99778
    13784.      0.99780
    13811.      0.99781
    13838.      0.99782
    13865.      0.99783
    13892.      0.99785
    13919.      0.99786
    13946.      0.99787
    13973.      0.99788
    14000.      0.99789
    14027.      0.99791
    14054.      0.99792
    14081.      0.99793
    14108.      0.99794
    14135.      0.99795
    14162.      0.99796
    14189.      0.99797
    14216.      0.99799
    14243.      0.99800
    14270.      0.99801
    14297.      0.99802
    14324.      0.99803
    14351.      0.99804
    14378.      0.99805
    14405.      0.99806
    14432.      0.99807
    14459.      0.99808
    14486.      0.99809
    14514.      0.99810
    14541.      0.99811
    14568.      0.99812
    14595.      0.99813
    14622.      0.99814
    14649.      0.99815
    14676.      0.99816
    14703.      0.99817
    14730.      0.99818
    14757.      0.99819
    14784.      0.99820
    14811.      0.99821
    14838.      0.99822
    14865.      0.99823
    14892.      0.99824
    14919.      0.99825
    14946.      0.99826
    14973.      0.99826
    15000.      0.99827
    15027.      0.99828
    15054.      0.99829
    15081.      0.99830
    15108.      0.99831
    15135.      0.99832
    15162.      0.99833
    15189.      0.99833
    15216.      0.99834
    15243.      0.99835
    15270.      0.99836
    15297.      0.99837
    15324.      0.99838
    15351.      0.99838
    15378.      0.99839
    15405.      0.99840
    15432.      0.99841
    15459.      0.99841
    15486.      0.99842
    15514.      0.99843
    15541.      0.99844
    15568.      0.99845
    15595.      0.99845
    15622.      0.99846
    15649.      0.99847
    15676.      0.99848
    15703.      0.99848
    15730.      0.99849
    15757.      0.99850
    15784.      0.99850
    15811.      0.99851
    15838.      0.99852
    15865.      0.99853
    15892.      0.99853
    15919.      0.99854
    15946.      0.99855
    15973.      0.99855
    16000.      0.99856
    16027.      0.99857
    16054.      0.99857
    16081.      0.99858
    16108.      0.99859
    16135.      0.99859
    16162.      0.99860
    16189.      0.99861
    16216.      0.99861
    16243.      0.99862
    16270.      0.99863
    16297.      0.99863
    16324.      0.99864
    16351.      0.99864
    16378.      0.99865
    16405.      0.99866
    16432.      0.99866
    16459.      0.99867
    16486.      0.99868
    16514.      0.99868
    16541.      0.99869
    16568.      0.99869
    16595.      0.99870
    16622.      0.99870
    16649.      0.99871
    16676.      0.99872
    16703.      0.99872
    16730.      0.99873
    16757.      0.99873
    16784.      0.99874
    16811.      0.99874
    16838.      0.99875
    16865.      0.99876
    16892.      0.99876
    16919.      0.99877
    16946.      0.99877
    16973.      0.99878
    17000.      0.99878
    17027.      0.99879
    17054.      0.99879
    17081.      0.99880
    17108.      0.99880
    17135.      0.99881
    17162.      0.99881
    17189.      0.99882
    17216.      0.99882
    17243.      0.99883
    17270.      0.99883
    17297.      0.99884
    17324.      0.99884
    17351.      0.99885
    17378.      0.99885
    17405.      0.99886
    17432.      0.99886
    17459.      0.99887
    17486.      0.99887
    17514.      0.99888
    17541.      0.99888
    17568.      0.99888
    17595.      0.99889
    17622.      0.99889
    17649.      0.99890
    17676.      0.99890
    17703.      0.99891
    17730.      0.99891
    17757.      0.99892
    17784.      0.99892
    17811.      0.99892
    17838.      0.99893
    17865.      0.99893
    17892.      0.99894
    17919.      0.99894
    17946.      0.99895
    17973.      0.99895
    18000.      0.99895
    18027.      0.99896
    18054.      0.99896
    18081.      0.99897
    18108.      0.99897
    18135.      0.99897
    18162.      0.99898
    18189.      0.99898
    18216.      0.99899
    18243.      0.99899
    18270.      0.99899
    18297.      0.99900
    18324.      0.99900
    18351.      0.99901
    18378.      0.99901
    18405.      0.99901
    18432.      0.99902
    18459.      0.99902
    18486.      0.99902
    18514.      0.99903
    18541.      0.99903
    18568.      0.99903
    18595.      0.99904
    18622.      0.99904
    18649.      0.99905
    18676.      0.99905
    18703.      0.99905
    18730.      0.99906
    18757.      0.99906
    18784.      0.99906
    18811.      0.99907
    18838.      0.99907
    18865.      0.99907
    18892.      0.99908
    18919.      0.99908
    18946.      0.99908
    18973.      0.99909
    19000.      0.99909
    19027.      0.99909
    19054.      0.99910
    19081.      0.99910
    19108.      0.99910
    19135.      0.99911
    19162.      0.99911
    19189.      0.99911
    19216.      0.99912
    19243.      0.99912
    19270.      0.99912
    19297.      0.99912
    19324.      0.99913
    19351.      0.99913
    19378.      0.99913
    19405.      0.99914
    19432.      0.99914
    19459.      0.99914
    19486.      0.99915
    19514.      0.99915
    19541.      0.99915
    19568.      0.99915
    19595.      0.99916
    19622.      0.99916
    19649.      0.99916
    19676.      0.99917
    19703.      0.99917
    19730.      0.99917
    19757.      0.99917
    19784.      0.99918
    19811.      0.99918
    19838.      0.99918
    19865.      0.99919
    19892.      0.99919
    19919.      0.99919
    19946.      0.99919
    19973.      0.99920
    20000.      0.99920
    20027.      0.99920
    20054.      0.99920
    20081.      0.99921
    20108.      0.99921
    20135.      0.99921
    20162.      0.99921
    20189.      0.99922
    20216.      0.99922
    20243.      0.99922
    20270.      0.99922
    20297.      0.99923
    20324.      0.99923
    20351.      0.99923
    20378.      0.99923
    20405.      0.99924
    20432.      0.99924
    20459.      0.99924
    20486.      0.99924
    20514.      0.99925
    20541.      0.99925
    20568.      0.99925
    20595.      0.99925
    20622.      0.99926
    20649.      0.99926
    20676.      0.99926
    20703.      0.99926
    20730.      0.99926
    20757.      0.99927
    20784.      0.99927
    20811.      0.99927
    20838.      0.99927
    20865.      0.99928
    20892.      0.99928
    20919.      0.99928
    20946.      0.99928
    20973.      0.99928
    21000.      0.99929
    21027.      0.99929
    21054.      0.99929
    21081.      0.99929
    21108.      0.99930
    21135.      0.99930
    21162.      0.99930
    21189.      0.99930
    21216.      0.99930
    21243.      0.99931
    21270.      0.99931
    21297.      0.99931
    21324.      0.99931
    21351.      0.99931
    21378.      0.99932
    21405.      0.99932
    21432.      0.99932
    21459.      0.99932
    21486.      0.99932
    21514.      0.99933
    21541.      0.99933
    21568.      0.99933
    21595.      0.99933
    21622.      0.99933
    21649.      0.99933
    21676.      0.99934
    21703.      0.99934
    21730.      0.99934
    21757.      0.99934
    21784.      0.99934
    21811.      0.99935
    21838.      0.99935
    21865.      0.99935
    21892.      0.99935
    21919.      0.99935
    21946.      0.99936
    21973.      0.99936
    22000.      0.99936
    22027.      0.99936
    22054.      0.99936
    22081.      0.99936
    22108.      0.99937
    22135.      0.99937
    22162.      0.99937
    22189.      0.99937
    22216.      0.99937
    22243.      0.99937
    22270.      0.99938
    22297.      0.99938
    22324.      0.99938
    22351.      0.99938
    22378.      0.99938
    22405.      0.99938
    22432.      0.99939
    22459.      0.99939
    22486.      0.99939
    22514.      0.99939
    22541.      0.99939
    22568.      0.99939
    22595.      0.99940
    22622.      0.99940
    22649.      0.99940
    22676.      0.99940
    22703.      0.99940
    22730.      0.99940
    22757.      0.99940
    22784.      0.99941
    22811.      0.99941
    22838.      0.99941
    22865.      0.99941
    22892.      0.99941
    22919.      0.99941
    22946.      0.99942
    22973.      0.99942
    23000.      0.99942
    23027.      0.99942
    23054.      0.99942
    23081.      0.99942
    23108.      0.99942
    23135.      0.99943
    23162.      0.99943
    23189.      0.99943
    23216.      0.99943
    23243.      0.99943
    23270.      0.99943
    23297.      0.99943
    23324.      0.99944
    23351.      0.99944
    23378.      0.99944
    23405.      0.99944
    23432.      0.99944
    23459.      0.99944
    23486.      0.99944
    23514.      0.99944
    23541.      0.99945
    23568.      0.99945
    23595.      0.99945
    23622.      0.99945
    23649.      0.99945
    23676.      0.99945
    23703.      0.99945
    23730.      0.99945
    23757.      0.99946
    23784.      0.99946
    23811.      0.99946
    23838.      0.99946
    23865.      0.99946
    23892.      0.99946
    23919.      0.99946
    23946.      0.99946
    23973.      0.99947
    24000.      0.99947
    24027.      0.99947
    24054.      0.99947
    24081.      0.99947
    24108.      0.99947
    24135.      0.99947
    24162.      0.99947
    24189.      0.99948
    24216.      0.99948
    24243.      0.99948
    24270.      0.99948
    24297.      0.99948
    24324.      0.99948
    24351.      0.99948
    24378.      0.99948
    24405.      0.99948
    24432.      0.99949
    24459.      0.99949
    24486.      0.99949
    24514.      0.99949
    24541.      0.99949
    24568.      0.99949
    24595.      0.99949
    24622.      0.99949
    24649.      0.99949
    24676.      0.99950
    24703.      0.99950
    24730.      0.99950
    24757.      0.99950
    24784.      0.99950
    24811.      0.99950
    24838.      0.99950
    24865.      0.99950
    24892.      0.99950
    24919.      0.99951
    24946.      0.99951
    24973.      0.99951
    25000.      0.99951
    25027.      0.99951
    25054.      0.99951
    25081.      0.99951
    25108.      0.99951
    25135.      0.99951
    25162.      0.99951
    25189.      0.99952
    25216.      0.99952
    25243.      0.99952
    25270.      0.99952
    25297.      0.99952
    25324.      0.99952
    25351.      0.99952
    25378.      0.99952
    25405.      0.99952
    25432.      0.99952
    25459.      0.99953
    25486.      0.99953
    25514.      0.99953
    25541.      0.99953
    25568.      0.99953
    25595.      0.99953
    25622.      0.99953
    25649.      0.99953
    25676.      0.99953
    25703.      0.99953
    25730.      0.99953
    25757.      0.99954
    25784.      0.99954
    25811.      0.99954
    25838.      0.99954
    25865.      0.99954
    25892.      0.99954
    25919.      0.99954
    25946.      0.99954
    25973.      0.99954
    26000.      0.99954
    26027.      0.99954
    26054.      0.99955
    26081.      0.99955
    26108.      0.99955
    26135.      0.99955
    26162.      0.99955
    26189.      0.99955
    26216.      0.99955
    26243.      0.99955
    26270.      0.99955
    26297.      0.99955
    26324.      0.99955
    26351.      0.99955
    26378.      0.99955
    26405.      0.99956
    26432.      0.99956
    26459.      0.99956
    26486.      0.99956
    26514.      0.99956
    26541.      0.99956
    26568.      0.99956
    26595.      0.99956
    26622.      0.99956
    26649.      0.99956
    26676.      0.99956
    26703.      0.99956
    26730.      0.99957
    26757.      0.99957
    26784.      0.99957
    26811.      0.99957
    26838.      0.99957
    26865.      0.99957
    26892.      0.99957
    26919.      0.99957
    26946.      0.99957
    26973.      0.99957
    27000.      0.99957
    27027.      0.99957
    27054.      0.99957
    27081.      0.99957
    27108.      0.99958
    27135.      0.99958
    27162.      0.99958
    27189.      0.99958
    27216.      0.99958
    27243.      0.99958
    27270.      0.99958
    27297.      0.99958
    27324.      0.99958
    27351.      0.99958
    27378.      0.99958
    27405.      0.99958
    27432.      0.99958
    27459.      0.99958
    27486.      0.99959
    27514.      0.99959
    27541.      0.99959
    27568.      0.99959
    27595.      0.99959
    27622.      0.99959
    27649.      0.99959
    27676.      0.99959
    27703.      0.99959
    27730.      0.99959
    27757.      0.99959
    27784.      0.99959
    27811.      0.99959
    27838.      0.99959
    27865.      0.99959
    27892.      0.99960
    27919.      0.99960
    27946.      0.99960
    27973.      0.99960
    28000.      0.99960
    28027.      0.99960
    28054.      0.99960
    28081.      0.99960
    28108.      0.99960
    28135.      0.99960
    28162.      0.99960
    28189.      0.99960
    28216.      0.99960
    28243.      0.99960
    28270.      0.99960
    28297.      0.99960
    28324.      0.99961
    28351.      0.99961
    28378.      0.99961
    28405.      0.99961
    28432.      0.99961
    28459.      0.99961
    28486.      0.99961
    28514.      0.99961
    28541.      0.99961
    28568.      0.99961
    28595.      0.99961
    28622.      0.99961
    28649.      0.99961
    28676.      0.99961
    28703.      0.99961
    28730.      0.99961
    28757.      0.99961
    28784.      0.99961
    28811.      0.99962
    28838.      0.99962
    28865.      0.99962
    28892.      0.99962
    28919.      0.99962
    28946.      0.99962
    28973.      0.99962
    29000.      0.99962
    29027.      0.99962
    29054.      0.99962
    29081.      0.99962
    29108.      0.99962
    29135.      0.99962
    29162.      0.99962
    29189.      0.99962
    29216.      0.99962
    29243.      0.99962
    29270.      0.99962
    29297.      0.99963
    29324.      0.99963
    29351.      0.99963
    29378.      0.99963
    29405.      0.99963
    29432.      0.99963
    29459.      0.99963
    29486.      0.99963
    29514.      0.99963
    29541.      0.99963
    29568.      0.99963
    29595.      0.99963
    29622.      0.99963
    29649.      0.99963
    29676.      0.99963
    29703.      0.99963
    29730.      0.99963
    29757.      0.99963
    29784.      0.99963
    29811.      0.99963
    29838.      0.99964
    29865.      0.99964
    29892.      0.99964
    29919.      0.99964
    29946.      0.99964
    29973.      0.99964
    30000.      0.99964
