# From: http://henke.lbl.gov/optical_constants/gastrn2.html
# N2 Pressure=760. Path=1. cm
# Photon energy (eV), Transmission
    3000.0      0.84673
    3027.0      0.85046
    3054.1      0.85408
    3081.1      0.85759
    3108.1      0.86099
    3135.1      0.86430
    3162.2      0.86750
    3189.2      0.87061
    3216.2      0.87363
    3243.2      0.87656
    3270.3      0.87941
    3297.3      0.88217
    3324.3      0.88485
    3351.4      0.88746
    3378.4      0.88999
    3405.4      0.89245
    3432.4      0.89485
    3459.5      0.89717
    3486.5      0.89943
    3513.5      0.90163
    3540.5      0.90377
    3567.6      0.90585
    3594.6      0.90787
    3621.6      0.90983
    3648.6      0.91175
    3675.7      0.91361
    3702.7      0.91542
    3729.7      0.91719
    3756.8      0.91891
    3783.8      0.92058
    3810.8      0.92221
    3837.8      0.92379
    3864.9      0.92534
    3891.9      0.92685
    3918.9      0.92831
    3945.9      0.92974
    3973.0      0.93113
    4000.0      0.93250
    4027.0      0.93383
    4054.1      0.93512
    4081.1      0.93638
    4108.1      0.93760
    4135.1      0.93880
    4162.2      0.93997
    4189.2      0.94111
    4216.2      0.94222
    4243.2      0.94330
    4270.3      0.94436
    4297.3      0.94539
    4324.3      0.94640
    4351.4      0.94739
    4378.4      0.94835
    4405.4      0.94929
    4432.4      0.95020
    4459.5      0.95110
    4486.5      0.95197
    4513.5      0.95282
    4540.5      0.95366
    4567.6      0.95448
    4594.6      0.95527
    4621.6      0.95605
    4648.6      0.95681
    4675.7      0.95756
    4702.7      0.95829
    4729.7      0.95900
    4756.8      0.95969
    4783.8      0.96037
    4810.8      0.96104
    4837.8      0.96169
    4864.9      0.96233
    4891.9      0.96295
    4918.9      0.96356
    4945.9      0.96416
    4973.0      0.96475
    5000.0      0.96532
    5027.0      0.96588
    5054.1      0.96643
    5081.1      0.96696
    5108.1      0.96749
    5135.1      0.96801
    5162.2      0.96851
    5189.2      0.96901
    5216.2      0.96949
    5243.2      0.96996
    5270.3      0.97043
    5297.3      0.97089
    5324.3      0.97133
    5351.4      0.97177
    5378.4      0.97220
    5405.4      0.97262
    5432.4      0.97303
    5459.5      0.97344
    5486.5      0.97383
    5513.5      0.97422
    5540.5      0.97460
    5567.6      0.97498
    5594.6      0.97534
    5621.6      0.97570
    5648.6      0.97606
    5675.7      0.97640
    5702.7      0.97674
    5729.7      0.97708
    5756.8      0.97740
    5783.8      0.97772
    5810.8      0.97804
    5837.8      0.97835
    5864.9      0.97865
    5891.9      0.97895
    5918.9      0.97924
    5945.9      0.97953
    5973.0      0.97981
    6000.0      0.98009
    6027.0      0.98036
    6054.1      0.98063
    6081.1      0.98089
    6108.1      0.98115
    6135.1      0.98141
    6162.2      0.98166
    6189.2      0.98190
    6216.2      0.98214
    6243.2      0.98238
    6270.3      0.98261
    6297.3      0.98284
    6324.3      0.98306
    6351.4      0.98328
    6378.4      0.98350
    6405.4      0.98371
    6432.4      0.98392
    6459.5      0.98413
    6486.5      0.98433
    6513.5      0.98453
    6540.5      0.98473
    6567.6      0.98492
    6594.6      0.98511
    6621.6      0.98530
    6648.6      0.98548
    6675.7      0.98566
    6702.7      0.98584
    6729.7      0.98601
    6756.8      0.98618
    6783.8      0.98635
    6810.8      0.98652
    6837.8      0.98668
    6864.9      0.98684
    6891.9      0.98700
    6918.9      0.98716
    6945.9      0.98731
    6973.0      0.98746
    7000.0      0.98761
    7027.0      0.98776
    7054.1      0.98790
    7081.1      0.98805
    7108.1      0.98818
    7135.1      0.98832
    7162.2      0.98846
    7189.2      0.98859
    7216.2      0.98872
    7243.2      0.98885
    7270.3      0.98898
    7297.3      0.98911
    7324.3      0.98923
    7351.4      0.98935
    7378.4      0.98947
    7405.4      0.98959
    7432.4      0.98971
    7459.5      0.98982
    7486.5      0.98994
    7513.5      0.99005
    7540.5      0.99016
    7567.6      0.99027
    7594.6      0.99037
    7621.6      0.99048
    7648.6      0.99058
    7675.7      0.99068
    7702.7      0.99078
    7729.7      0.99088
    7756.8      0.99098
    7783.8      0.99108
    7810.8      0.99117
    7837.8      0.99127
    7864.9      0.99136
    7891.9      0.99145
    7918.9      0.99154
    7945.9      0.99163
    7973.0      0.99172
    8000.0      0.99180
    8027.0      0.99189
    8054.1      0.99197
    8081.1      0.99206
    8108.1      0.99214
    8135.1      0.99222
    8162.2      0.99230
    8189.2      0.99238
    8216.2      0.99245
    8243.2      0.99253
    8270.3      0.99261
    8297.3      0.99268
    8324.3      0.99275
    8351.4      0.99283
    8378.4      0.99290
    8405.4      0.99297
    8432.4      0.99304
    8459.5      0.99311
    8486.5      0.99317
    8513.5      0.99324
    8540.5      0.99331
    8567.6      0.99337
    8594.6      0.99344
    8621.6      0.99350
    8648.6      0.99356
    8675.7      0.99362
    8702.7      0.99369
    8729.7      0.99375
    8756.8      0.99381
    8783.8      0.99386
    8810.8      0.99392
    8837.8      0.99398
    8864.9      0.99404
    8891.9      0.99409
    8918.9      0.99415
    8945.9      0.99420
    8973.0      0.99426
    9000.0      0.99431
    9027.0      0.99436
    9054.1      0.99441
    9081.1      0.99447
    9108.1      0.99452
    9135.1      0.99457
    9162.2      0.99462
    9189.2      0.99466
    9216.2      0.99471
    9243.2      0.99476
    9270.3      0.99481
    9297.3      0.99485
    9324.3      0.99490
    9351.4      0.99494
    9378.4      0.99499
    9405.4      0.99503
    9432.4      0.99508
    9459.5      0.99512
    9486.5      0.99516
    9513.5      0.99521
    9540.5      0.99525
    9567.6      0.99529
    9594.6      0.99533
    9621.6      0.99537
    9648.6      0.99541
    9675.7      0.99545
    9702.7      0.99549
    9729.7      0.99553
    9756.8      0.99557
    9783.8      0.99560
    9810.8      0.99564
    9837.8      0.99568
    9864.9      0.99571
    9891.9      0.99575
    9918.9      0.99578
    9945.9      0.99582
    9973.0      0.99585
    10000.      0.99589
    10027.      0.99592
    10054.      0.99596
    10081.      0.99599
    10108.      0.99602
    10135.      0.99606
    10162.      0.99609
    10189.      0.99612
    10216.      0.99615
    10243.      0.99618
    10270.      0.99621
    10297.      0.99624
    10324.      0.99627
    10351.      0.99630
    10378.      0.99633
    10405.      0.99636
    10432.      0.99639
    10459.      0.99642
    10486.      0.99645
    10514.      0.99648
    10541.      0.99650
    10568.      0.99653
    10595.      0.99656
    10622.      0.99658
    10649.      0.99661
    10676.      0.99664
    10703.      0.99666
    10730.      0.99669
    10757.      0.99671
    10784.      0.99674
    10811.      0.99676
    10838.      0.99679
    10865.      0.99681
    10892.      0.99684
    10919.      0.99686
    10946.      0.99688
    10973.      0.99691
    11000.      0.99693
    11027.      0.99695
    11054.      0.99698
    11081.      0.99700
    11108.      0.99702
    11135.      0.99704
    11162.      0.99707
    11189.      0.99709
    11216.      0.99711
    11243.      0.99713
    11270.      0.99715
    11297.      0.99717
    11324.      0.99719
    11351.      0.99721
    11378.      0.99723
    11405.      0.99725
    11432.      0.99727
    11459.      0.99729
    11486.      0.99731
    11514.      0.99733
    11541.      0.99735
    11568.      0.99737
    11595.      0.99738
    11622.      0.99740
    11649.      0.99742
    11676.      0.99744
    11703.      0.99746
    11730.      0.99747
    11757.      0.99749
    11784.      0.99751
    11811.      0.99753
    11838.      0.99754
    11865.      0.99756
    11892.      0.99758
    11919.      0.99759
    11946.      0.99761
    11973.      0.99763
    12000.      0.99764
    12027.      0.99766
    12054.      0.99767
    12081.      0.99769
    12108.      0.99771
    12135.      0.99772
    12162.      0.99774
    12189.      0.99775
    12216.      0.99777
    12243.      0.99778
    12270.      0.99779
    12297.      0.99781
    12324.      0.99782
    12351.      0.99784
    12378.      0.99785
    12405.      0.99787
    12432.      0.99788
    12459.      0.99789
    12486.      0.99791
    12514.      0.99792
    12541.      0.99793
    12568.      0.99795
    12595.      0.99796
    12622.      0.99797
    12649.      0.99799
    12676.      0.99800
    12703.      0.99801
    12730.      0.99802
    12757.      0.99804
    12784.      0.99805
    12811.      0.99806
    12838.      0.99807
    12865.      0.99808
    12892.      0.99810
    12919.      0.99811
    12946.      0.99812
    12973.      0.99813
    13000.      0.99814
    13027.      0.99815
    13054.      0.99817
    13081.      0.99818
    13108.      0.99819
    13135.      0.99820
    13162.      0.99821
    13189.      0.99822
    13216.      0.99823
    13243.      0.99824
    13270.      0.99825
    13297.      0.99826
    13324.      0.99827
    13351.      0.99828
    13378.      0.99829
    13405.      0.99830
    13432.      0.99831
    13459.      0.99832
    13486.      0.99833
    13514.      0.99834
    13541.      0.99835
    13568.      0.99836
    13595.      0.99837
    13622.      0.99838
    13649.      0.99839
    13676.      0.99840
    13703.      0.99841
    13730.      0.99842
    13757.      0.99843
    13784.      0.99844
    13811.      0.99844
    13838.      0.99845
    13865.      0.99846
    13892.      0.99847
    13919.      0.99848
    13946.      0.99849
    13973.      0.99850
    14000.      0.99850
    14027.      0.99851
    14054.      0.99852
    14081.      0.99853
    14108.      0.99854
    14135.      0.99854
    14162.      0.99855
    14189.      0.99856
    14216.      0.99857
    14243.      0.99858
    14270.      0.99858
    14297.      0.99859
    14324.      0.99860
    14351.      0.99861
    14378.      0.99861
    14405.      0.99862
    14432.      0.99863
    14459.      0.99864
    14486.      0.99864
    14514.      0.99865
    14541.      0.99866
    14568.      0.99866
    14595.      0.99867
    14622.      0.99868
    14649.      0.99869
    14676.      0.99869
    14703.      0.99870
    14730.      0.99871
    14757.      0.99871
    14784.      0.99872
    14811.      0.99873
    14838.      0.99873
    14865.      0.99874
    14892.      0.99874
    14919.      0.99875
    14946.      0.99876
    14973.      0.99876
    15000.      0.99877
    15027.      0.99878
    15054.      0.99878
    15081.      0.99879
    15108.      0.99879
    15135.      0.99880
    15162.      0.99881
    15189.      0.99881
    15216.      0.99882
    15243.      0.99882
    15270.      0.99883
    15297.      0.99884
    15324.      0.99884
    15351.      0.99885
    15378.      0.99885
    15405.      0.99886
    15432.      0.99886
    15459.      0.99887
    15486.      0.99887
    15514.      0.99888
    15541.      0.99888
    15568.      0.99889
    15595.      0.99890
    15622.      0.99890
    15649.      0.99891
    15676.      0.99891
    15703.      0.99892
    15730.      0.99892
    15757.      0.99893
    15784.      0.99893
    15811.      0.99894
    15838.      0.99894
    15865.      0.99895
    15892.      0.99895
    15919.      0.99896
    15946.      0.99896
    15973.      0.99897
    16000.      0.99897
    16027.      0.99897
    16054.      0.99898
    16081.      0.99898
    16108.      0.99899
    16135.      0.99899
    16162.      0.99900
    16189.      0.99900
    16216.      0.99901
    16243.      0.99901
    16270.      0.99902
    16297.      0.99902
    16324.      0.99902
    16351.      0.99903
    16378.      0.99903
    16405.      0.99904
    16432.      0.99904
    16459.      0.99905
    16486.      0.99905
    16514.      0.99905
    16541.      0.99906
    16568.      0.99906
    16595.      0.99907
    16622.      0.99907
    16649.      0.99907
    16676.      0.99908
    16703.      0.99908
    16730.      0.99909
    16757.      0.99909
    16784.      0.99909
    16811.      0.99910
    16838.      0.99910
    16865.      0.99910
    16892.      0.99911
    16919.      0.99911
    16946.      0.99912
    16973.      0.99912
    17000.      0.99912
    17027.      0.99913
    17054.      0.99913
    17081.      0.99913
    17108.      0.99914
    17135.      0.99914
    17162.      0.99914
    17189.      0.99915
    17216.      0.99915
    17243.      0.99915
    17270.      0.99916
    17297.      0.99916
    17324.      0.99916
    17351.      0.99917
    17378.      0.99917
    17405.      0.99917
    17432.      0.99918
    17459.      0.99918
    17486.      0.99918
    17514.      0.99919
    17541.      0.99919
    17568.      0.99919
    17595.      0.99920
    17622.      0.99920
    17649.      0.99920
    17676.      0.99921
    17703.      0.99921
    17730.      0.99921
    17757.      0.99922
    17784.      0.99922
    17811.      0.99922
    17838.      0.99922
    17865.      0.99923
    17892.      0.99923
    17919.      0.99923
    17946.      0.99924
    17973.      0.99924
    18000.      0.99924
    18027.      0.99924
    18054.      0.99925
    18081.      0.99925
    18108.      0.99925
    18135.      0.99926
    18162.      0.99926
    18189.      0.99926
    18216.      0.99926
    18243.      0.99927
    18270.      0.99927
    18297.      0.99927
    18324.      0.99927
    18351.      0.99928
    18378.      0.99928
    18405.      0.99928
    18432.      0.99928
    18459.      0.99929
    18486.      0.99929
    18514.      0.99929
    18541.      0.99929
    18568.      0.99930
    18595.      0.99930
    18622.      0.99930
    18649.      0.99930
    18676.      0.99931
    18703.      0.99931
    18730.      0.99931
    18757.      0.99931
    18784.      0.99932
    18811.      0.99932
    18838.      0.99932
    18865.      0.99932
    18892.      0.99933
    18919.      0.99933
    18946.      0.99933
    18973.      0.99933
    19000.      0.99933
    19027.      0.99934
    19054.      0.99934
    19081.      0.99934
    19108.      0.99934
    19135.      0.99935
    19162.      0.99935
    19189.      0.99935
    19216.      0.99935
    19243.      0.99935
    19270.      0.99936
    19297.      0.99936
    19324.      0.99936
    19351.      0.99936
    19378.      0.99936
    19405.      0.99937
    19432.      0.99937
    19459.      0.99937
    19486.      0.99937
    19514.      0.99937
    19541.      0.99938
    19568.      0.99938
    19595.      0.99938
    19622.      0.99938
    19649.      0.99938
    19676.      0.99939
    19703.      0.99939
    19730.      0.99939
    19757.      0.99939
    19784.      0.99939
    19811.      0.99940
    19838.      0.99940
    19865.      0.99940
    19892.      0.99940
    19919.      0.99940
    19946.      0.99940
    19973.      0.99941
    20000.      0.99941
    20027.      0.99941
    20054.      0.99941
    20081.      0.99941
    20108.      0.99942
    20135.      0.99942
    20162.      0.99942
    20189.      0.99942
    20216.      0.99942
    20243.      0.99942
    20270.      0.99943
    20297.      0.99943
    20324.      0.99943
    20351.      0.99943
    20378.      0.99943
    20405.      0.99943
    20432.      0.99944
    20459.      0.99944
    20486.      0.99944
    20514.      0.99944
    20541.      0.99944
    20568.      0.99944
    20595.      0.99945
    20622.      0.99945
    20649.      0.99945
    20676.      0.99945
    20703.      0.99945
    20730.      0.99945
    20757.      0.99945
    20784.      0.99946
    20811.      0.99946
    20838.      0.99946
    20865.      0.99946
    20892.      0.99946
    20919.      0.99946
    20946.      0.99947
    20973.      0.99947
    21000.      0.99947
    21027.      0.99947
    21054.      0.99947
    21081.      0.99947
    21108.      0.99947
    21135.      0.99948
    21162.      0.99948
    21189.      0.99948
    21216.      0.99948
    21243.      0.99948
    21270.      0.99948
    21297.      0.99948
    21324.      0.99948
    21351.      0.99949
    21378.      0.99949
    21405.      0.99949
    21432.      0.99949
    21459.      0.99949
    21486.      0.99949
    21514.      0.99949
    21541.      0.99950
    21568.      0.99950
    21595.      0.99950
    21622.      0.99950
    21649.      0.99950
    21676.      0.99950
    21703.      0.99950
    21730.      0.99950
    21757.      0.99951
    21784.      0.99951
    21811.      0.99951
    21838.      0.99951
    21865.      0.99951
    21892.      0.99951
    21919.      0.99951
    21946.      0.99951
    21973.      0.99952
    22000.      0.99952
    22027.      0.99952
    22054.      0.99952
    22081.      0.99952
    22108.      0.99952
    22135.      0.99952
    22162.      0.99952
    22189.      0.99952
    22216.      0.99953
    22243.      0.99953
    22270.      0.99953
    22297.      0.99953
    22324.      0.99953
    22351.      0.99953
    22378.      0.99953
    22405.      0.99953
    22432.      0.99953
    22459.      0.99954
    22486.      0.99954
    22514.      0.99954
    22541.      0.99954
    22568.      0.99954
    22595.      0.99954
    22622.      0.99954
    22649.      0.99954
    22676.      0.99954
    22703.      0.99955
    22730.      0.99955
    22757.      0.99955
    22784.      0.99955
    22811.      0.99955
    22838.      0.99955
    22865.      0.99955
    22892.      0.99955
    22919.      0.99955
    22946.      0.99955
    22973.      0.99956
    23000.      0.99956
    23027.      0.99956
    23054.      0.99956
    23081.      0.99956
    23108.      0.99956
    23135.      0.99956
    23162.      0.99956
    23189.      0.99956
    23216.      0.99956
    23243.      0.99957
    23270.      0.99957
    23297.      0.99957
    23324.      0.99957
    23351.      0.99957
    23378.      0.99957
    23405.      0.99957
    23432.      0.99957
    23459.      0.99957
    23486.      0.99957
    23514.      0.99957
    23541.      0.99958
    23568.      0.99958
    23595.      0.99958
    23622.      0.99958
    23649.      0.99958
    23676.      0.99958
    23703.      0.99958
    23730.      0.99958
    23757.      0.99958
    23784.      0.99958
    23811.      0.99958
    23838.      0.99958
    23865.      0.99959
    23892.      0.99959
    23919.      0.99959
    23946.      0.99959
    23973.      0.99959
    24000.      0.99959
    24027.      0.99959
    24054.      0.99959
    24081.      0.99959
    24108.      0.99959
    24135.      0.99959
    24162.      0.99959
    24189.      0.99960
    24216.      0.99960
    24243.      0.99960
    24270.      0.99960
    24297.      0.99960
    24324.      0.99960
    24351.      0.99960
    24378.      0.99960
    24405.      0.99960
    24432.      0.99960
    24459.      0.99960
    24486.      0.99960
    24514.      0.99960
    24541.      0.99960
    24568.      0.99961
    24595.      0.99961
    24622.      0.99961
    24649.      0.99961
    24676.      0.99961
    24703.      0.99961
    24730.      0.99961
    24757.      0.99961
    24784.      0.99961
    24811.      0.99961
    24838.      0.99961
    24865.      0.99961
    24892.      0.99961
    24919.      0.99961
    24946.      0.99962
    24973.      0.99962
    25000.      0.99962
    25027.      0.99962
    25054.      0.99962
    25081.      0.99962
    25108.      0.99962
    25135.      0.99962
    25162.      0.99962
    25189.      0.99962
    25216.      0.99962
    25243.      0.99962
    25270.      0.99962
    25297.      0.99962
    25324.      0.99962
    25351.      0.99963
    25378.      0.99963
    25405.      0.99963
    25432.      0.99963
    25459.      0.99963
    25486.      0.99963
    25514.      0.99963
    25541.      0.99963
    25568.      0.99963
    25595.      0.99963
    25622.      0.99963
    25649.      0.99963
    25676.      0.99963
    25703.      0.99963
    25730.      0.99963
    25757.      0.99963
    25784.      0.99964
    25811.      0.99964
    25838.      0.99964
    25865.      0.99964
    25892.      0.99964
    25919.      0.99964
    25946.      0.99964
    25973.      0.99964
    26000.      0.99964
    26027.      0.99964
    26054.      0.99964
    26081.      0.99964
    26108.      0.99964
    26135.      0.99964
    26162.      0.99964
    26189.      0.99964
    26216.      0.99964
    26243.      0.99964
    26270.      0.99965
    26297.      0.99965
    26324.      0.99965
    26351.      0.99965
    26378.      0.99965
    26405.      0.99965
    26432.      0.99965
    26459.      0.99965
    26486.      0.99965
    26514.      0.99965
    26541.      0.99965
    26568.      0.99965
    26595.      0.99965
    26622.      0.99965
    26649.      0.99965
    26676.      0.99965
    26703.      0.99965
    26730.      0.99965
    26757.      0.99965
    26784.      0.99966
    26811.      0.99966
    26838.      0.99966
    26865.      0.99966
    26892.      0.99966
    26919.      0.99966
    26946.      0.99966
    26973.      0.99966
    27000.      0.99966
    27027.      0.99966
    27054.      0.99966
    27081.      0.99966
    27108.      0.99966
    27135.      0.99966
    27162.      0.99966
    27189.      0.99966
    27216.      0.99966
    27243.      0.99966
    27270.      0.99966
    27297.      0.99966
    27324.      0.99967
    27351.      0.99967
    27378.      0.99967
    27405.      0.99967
    27432.      0.99967
    27459.      0.99967
    27486.      0.99967
    27514.      0.99967
    27541.      0.99967
    27568.      0.99967
    27595.      0.99967
    27622.      0.99967
    27649.      0.99967
    27676.      0.99967
    27703.      0.99967
    27730.      0.99967
    27757.      0.99967
    27784.      0.99967
    27811.      0.99967
    27838.      0.99967
    27865.      0.99967
    27892.      0.99967
    27919.      0.99967
    27946.      0.99968
    27973.      0.99968
    28000.      0.99968
    28027.      0.99968
    28054.      0.99968
    28081.      0.99968
    28108.      0.99968
    28135.      0.99968
    28162.      0.99968
    28189.      0.99968
    28216.      0.99968
    28243.      0.99968
    28270.      0.99968
    28297.      0.99968
    28324.      0.99968
    28351.      0.99968
    28378.      0.99968
    28405.      0.99968
    28432.      0.99968
    28459.      0.99968
    28486.      0.99968
    28514.      0.99968
    28541.      0.99968
    28568.      0.99968
    28595.      0.99968
    28622.      0.99968
    28649.      0.99969
    28676.      0.99969
    28703.      0.99969
    28730.      0.99969
    28757.      0.99969
    28784.      0.99969
    28811.      0.99969
    28838.      0.99969
    28865.      0.99969
    28892.      0.99969
    28919.      0.99969
    28946.      0.99969
    28973.      0.99969
    29000.      0.99969
    29027.      0.99969
    29054.      0.99969
    29081.      0.99969
    29108.      0.99969
    29135.      0.99969
    29162.      0.99969
    29189.      0.99969
    29216.      0.99969
    29243.      0.99969
    29270.      0.99969
    29297.      0.99969
    29324.      0.99969
    29351.      0.99969
    29378.      0.99969
    29405.      0.99970
    29432.      0.99970
    29459.      0.99970
    29486.      0.99970
    29514.      0.99970
    29541.      0.99970
    29568.      0.99970
    29595.      0.99970
    29622.      0.99970
    29649.      0.99970
    29676.      0.99970
    29703.      0.99970
    29730.      0.99970
    29757.      0.99970
    29784.      0.99970
    29811.      0.99970
    29838.      0.99970
    29865.      0.99970
    29892.      0.99970
    29919.      0.99970
    29946.      0.99970
    29973.      0.99970
    30000.      0.99970
